#number of MFEP,target field[uT],limit field which iron shims can generate[uT]
0	832.953	3713.51
1	768.301	3713.51
2	705.173	3713.51
3	643.817	3713.51
4	584.476	3713.51
5	527.384	3713.51
6	472.766	3713.51
7	420.838	3713.51
8	371.805	3713.51
9	325.859	3713.51
10	283.184	3713.51
11	243.945	3713.51
12	208.3	3713.51
13	176.388	3713.51
14	148.335	3713.51
15	124.251	3713.51
16	104.233	3713.51
17	88.3584	3713.51
18	76.6902	3713.51
19	69.2745	3713.51
20	66.1405	3713.51
21	67.3006	3713.51
22	72.7501	3713.51
23	82.4675	3713.51
24	96.4145	3713.51
25	114.536	3713.51
26	136.76	3713.51
27	163	3713.51
28	193.152	3713.51
29	227.096	3713.51
30	264.699	3713.51
31	305.813	3713.51
32	350.274	3713.51
33	397.909	3713.51
34	448.528	3713.51
35	501.933	3713.51
36	557.911	3713.51
37	616.243	3713.51
38	676.699	3713.51
39	739.039	3713.51
40	803.018	3713.51
41	868.383	3713.51
42	934.876	3713.51
43	1002.24	3713.51
44	1070.2	3713.51
45	1138.49	3713.51
46	1206.84	3713.51
47	1274.99	3713.51
48	1342.66	3713.51
49	1409.58	3713.51
50	1475.5	3713.51
51	1540.16	3713.51
52	1603.29	3713.51
53	1664.64	3713.51
54	1723.99	3713.51
55	1781.08	3713.51
56	1835.71	3713.51
57	1887.64	3713.51
58	1936.68	3713.51
59	1982.63	3713.51
60	2025.31	3713.51
61	2064.55	3713.51
62	2100.21	3713.51
63	2132.12	3713.51
64	2160.18	3713.51
65	2184.27	3713.51
66	2204.3	3713.51
67	2220.18	3713.51
68	2231.85	3713.51
69	2239.27	3713.51
70	2242.41	3713.51
71	2241.25	3713.51
72	2235.8	3713.51
73	2226.09	3713.51
74	2212.14	3713.51
75	2194.02	3713.51
76	2171.8	3713.51
77	2145.55	3713.51
78	2115.4	3713.51
79	2081.45	3713.51
80	2043.85	3713.51
81	2002.73	3713.51
82	1958.26	3713.51
83	1910.62	3713.51
84	1860	3713.51
85	1806.59	3713.51
86	1750.6	3713.51
87	1692.26	3713.51
88	1631.8	3713.51
89	1569.46	3713.51
90	1505.47	3713.51
91	1440.1	3713.51
92	1373.6	3713.51
93	1306.24	3713.51
94	1238.27	3713.51
95	1169.98	3713.51
96	1101.62	3713.51
97	1033.47	3713.51
98	965.801	3713.51
99	898.873	3713.51
100	796.836	3711.55
101	732.153	3711.55
102	669.036	3711.55
103	607.736	3711.55
104	548.494	3711.55
105	491.543	3711.55
106	437.109	3711.55
107	385.406	3711.55
108	336.638	3711.55
109	290.997	3711.55
110	248.665	3711.55
111	209.807	3711.55
112	174.577	3711.55
113	143.114	3711.55
114	115.542	3711.55
115	91.9705	3711.55
116	72.4918	3711.55
117	57.1829	3711.55
118	46.1042	3711.55
119	39.2993	3711.55
120	36.7952	3711.55
121	38.6017	3711.55
122	44.7116	3711.55
123	55.1009	3711.55
124	69.7284	3711.55
125	88.5365	3711.55
126	111.451	3711.55
127	138.381	3711.55
128	169.221	3711.55
129	203.85	3711.55
130	242.129	3711.55
131	283.909	3711.55
132	329.024	3711.55
133	377.296	3711.55
134	428.535	3711.55
135	482.54	3711.55
136	539.095	3711.55
137	597.98	3711.55
138	658.96	3711.55
139	721.796	3711.55
140	786.239	3711.55
141	852.036	3711.55
142	918.926	3711.55
143	986.646	3711.55
144	1054.93	3711.55
145	1123.5	3711.55
146	1192.1	3711.55
147	1260.45	3711.55
148	1328.28	3711.55
149	1395.33	3711.55
150	1461.32	3711.55
151	1526.01	3711.55
152	1589.13	3711.55
153	1650.43	3711.55
154	1709.67	3711.55
155	1766.63	3711.55
156	1821.07	3711.55
157	1872.78	3711.55
158	1921.55	3711.55
159	1967.2	3711.55
160	2009.53	3711.55
161	2048.4	3711.55
162	2083.63	3711.55
163	2115.1	3711.55
164	2142.68	3711.55
165	2166.26	3711.55
166	2185.74	3711.55
167	2201.06	3711.55
168	2212.14	3711.55
169	2218.95	3711.55
170	2221.46	3711.55
171	2219.65	3711.55
172	2213.54	3711.55
173	2203.16	3711.55
174	2188.53	3711.55
175	2169.72	3711.55
176	2146.8	3711.55
177	2119.87	3711.55
178	2089.03	3711.55
179	2054.4	3711.55
180	2016.11	3711.55
181	1974.33	3711.55
182	1929.21	3711.55
183	1880.93	3711.55
184	1829.69	3711.55
185	1775.68	3711.55
186	1719.11	3711.55
187	1660.22	3711.55
188	1599.24	3711.55
189	1536.4	3711.55
190	1471.95	3711.55
191	1406.14	3711.55
192	1339.25	3711.55
193	1271.52	3711.55
194	1203.24	3711.55
195	1134.66	3711.55
196	1066.06	3711.55
197	997.708	3711.55
198	929.876	3711.55
199	862.83	3711.55
200	760.07	3710.07
201	695.431	3710.07
202	632.401	3710.07
203	571.23	3710.07
204	512.159	3710.07
205	455.42	3710.07
206	401.239	3710.07
207	349.828	3710.07
208	301.39	3710.07
209	256.118	3710.07
210	214.188	3710.07
211	175.767	3710.07
212	141.007	3710.07
213	110.044	3710.07
214	83.0005	3710.07
215	59.9833	3710.07
216	41.0833	3710.07
217	26.375	3710.07
218	15.9164	3710.07
219	9.74871	3710.07
220	7.89629	3710.07
221	10.3664	3710.07
222	17.1494	3710.07
223	28.2184	3710.07
224	43.5297	3710.07
225	63.023	3710.07
226	86.6212	3710.07
227	114.231	3710.07
228	145.744	3710.07
229	181.036	3710.07
230	219.967	3710.07
231	262.384	3710.07
232	308.119	3710.07
233	356.991	3710.07
234	408.809	3710.07
235	463.368	3710.07
236	520.452	3710.07
237	579.835	3710.07
238	641.285	3710.07
239	704.557	3710.07
240	769.404	3710.07
241	835.568	3710.07
242	902.788	3710.07
243	970.8	3710.07
244	1039.33	3710.07
245	1108.12	3710.07
246	1176.89	3710.07
247	1245.37	3710.07
248	1313.28	3710.07
249	1380.37	3710.07
250	1446.37	3710.07
251	1511.01	3710.07
252	1574.04	3710.07
253	1635.22	3710.07
254	1694.29	3710.07
255	1751.03	3710.07
256	1805.22	3710.07
257	1856.64	3710.07
258	1905.08	3710.07
259	1950.36	3710.07
260	1992.29	3710.07
261	2030.72	3710.07
262	2065.49	3710.07
263	2096.46	3710.07
264	2123.51	3710.07
265	2146.53	3710.07
266	2165.43	3710.07
267	2180.14	3710.07
268	2190.61	3710.07
269	2196.78	3710.07
270	2198.63	3710.07
271	2196.17	3710.07
272	2189.38	3710.07
273	2178.31	3710.07
274	2163	3710.07
275	2143.51	3710.07
276	2119.91	3710.07
277	2092.3	3710.07
278	2060.78	3710.07
279	2025.48	3710.07
280	1986.55	3710.07
281	1944.13	3710.07
282	1898.39	3710.07
283	1849.51	3710.07
284	1797.68	3710.07
285	1743.12	3710.07
286	1686.03	3710.07
287	1626.64	3710.07
288	1565.19	3710.07
289	1501.91	3710.07
290	1437.06	3710.07
291	1370.89	3710.07
292	1303.66	3710.07
293	1235.65	3710.07
294	1167.11	3710.07
295	1098.32	3710.07
296	1029.55	3710.07
297	961.07	3710.07
298	893.152	3710.07
299	826.064	3710.07
300	722.783	3709.08
301	658.263	3709.08
302	595.395	3709.08
303	534.426	3709.08
304	475.598	3709.08
305	419.142	3709.08
306	365.281	3709.08
307	314.228	3709.08
308	266.184	3709.08
309	221.339	3709.08
310	179.87	3709.08
311	141.94	3709.08
312	107.699	3709.08
313	77.2822	3709.08
314	50.8095	3709.08
315	28.3854	3709.08
316	10.0984	3709.08
317	-3.97951	3709.08
318	-13.7927	3709.08
319	-19.3024	3709.08
320	-20.487	3709.08
321	-17.3418	3709.08
322	-9.87918	3709.08
323	1.87138	3709.08
324	17.8635	3709.08
325	38.0341	3709.08
326	62.3036	3709.08
327	90.5761	3709.08
328	122.74	3709.08
329	158.669	3709.08
330	198.221	3709.08
331	241.239	3709.08
332	287.554	3709.08
333	336.984	3709.08
334	389.333	3709.08
335	444.395	3709.08
336	501.952	3709.08
337	561.777	3709.08
338	623.635	3709.08
339	687.28	3709.08
340	752.463	3709.08
341	818.925	3709.08
342	886.405	3709.08
343	954.637	3709.08
344	1023.35	3709.08
345	1092.27	3709.08
346	1161.14	3709.08
347	1229.67	3709.08
348	1297.59	3709.08
349	1364.65	3709.08
350	1430.57	3709.08
351	1495.09	3709.08
352	1557.96	3709.08
353	1618.93	3709.08
354	1677.76	3709.08
355	1734.23	3709.08
356	1788.09	3709.08
357	1839.15	3709.08
358	1887.2	3709.08
359	1932.05	3709.08
360	1973.53	3709.08
361	2011.46	3709.08
362	2045.71	3709.08
363	2076.13	3709.08
364	2102.61	3709.08
365	2125.04	3709.08
366	2143.33	3709.08
367	2157.41	3709.08
368	2167.23	3709.08
369	2172.74	3709.08
370	2173.93	3709.08
371	2170.78	3709.08
372	2163.32	3709.08
373	2151.57	3709.08
374	2135.58	3709.08
375	2115.4	3709.08
376	2091.13	3709.08
377	2062.86	3709.08
378	2030.69	3709.08
379	1994.76	3709.08
380	1955.2	3709.08
381	1912.18	3709.08
382	1865.86	3709.08
383	1816.42	3709.08
384	1764.07	3709.08
385	1709	3709.08
386	1651.43	3709.08
387	1591.6	3709.08
388	1529.74	3709.08
389	1466.09	3709.08
390	1400.9	3709.08
391	1334.43	3709.08
392	1266.95	3709.08
393	1198.72	3709.08
394	1130	3709.08
395	1061.07	3709.08
396	992.211	3709.08
397	923.681	3709.08
398	855.754	3709.08
399	788.7	3709.08
400	685.112	3708.58
401	620.788	3708.58
402	558.155	3708.58
403	497.462	3708.58
404	438.948	3708.58
405	382.843	3708.58
406	329.37	3708.58
407	278.738	3708.58
408	231.149	3708.58
409	186.789	3708.58
410	145.834	3708.58
411	108.446	3708.58
412	74.7709	3708.58
413	44.9429	3708.58
414	19.0793	3708.58
415	-2.71787	3708.58
416	-20.3626	3708.58
417	-33.7852	3708.58
418	-42.9329	3708.58
419	-47.7694	3708.58
420	-48.2757	3708.58
421	-44.4499	3708.58
422	-36.307	3708.58
423	-23.8792	3708.58
424	-7.21554	3708.58
425	13.6183	3708.58
426	38.54	3708.58
427	67.4513	3708.58
428	100.238	3708.58
429	136.771	3708.58
430	176.906	3708.58
431	220.484	3708.58
432	267.335	3708.58
433	317.272	3708.58
434	370.098	3708.58
435	425.606	3708.58
436	483.577	3708.58
437	543.78	3708.58
438	605.98	3708.58
439	669.93	3708.58
440	735.379	3708.58
441	802.067	3708.58
442	869.732	3708.58
443	938.106	3708.58
444	1006.92	3708.58
445	1075.9	3708.58
446	1144.78	3708.58
447	1213.29	3708.58
448	1281.14	3708.58
449	1348.09	3708.58
450	1413.85	3708.58
451	1478.18	3708.58
452	1540.81	3708.58
453	1601.51	3708.58
454	1660.03	3708.58
455	1716.14	3708.58
456	1769.62	3708.58
457	1820.25	3708.58
458	1867.85	3708.58
459	1912.21	3708.58
460	1953.17	3708.58
461	1990.57	3708.58
462	2024.25	3708.58
463	2054.08	3708.58
464	2079.95	3708.58
465	2101.75	3708.58
466	2119.4	3708.58
467	2132.83	3708.58
468	2141.98	3708.58
469	2146.82	3708.58
470	2147.32	3708.58
471	2143.5	3708.58
472	2135.36	3708.58
473	2122.93	3708.58
474	2106.26	3708.58
475	2085.43	3708.58
476	2060.5	3708.58
477	2031.59	3708.58
478	1998.8	3708.58
479	1962.26	3708.58
480	1922.12	3708.58
481	1878.54	3708.58
482	1831.68	3708.58
483	1781.74	3708.58
484	1728.91	3708.58
485	1673.39	3708.58
486	1615.42	3708.58
487	1555.21	3708.58
488	1493	3708.58
489	1429.05	3708.58
490	1363.6	3708.58
491	1296.9	3708.58
492	1229.23	3708.58
493	1160.86	3708.58
494	1092.04	3708.58
495	1023.06	3708.58
496	954.177	3708.58
497	885.673	3708.58
498	817.817	3708.58
499	750.875	3708.58
500	647.198	3708.58
501	583.146	3708.58
502	520.824	3708.58
503	460.48	3708.58
504	402.35	3708.58
505	346.665	3708.58
506	293.644	3708.58
507	243.497	3708.58
508	196.421	3708.58
509	152.602	3708.58
510	112.212	3708.58
511	75.4122	3708.58
512	42.3466	3708.58
513	13.146	3708.58
514	-12.0744	3708.58
515	-33.2151	3708.58
516	-50.1928	3708.58
517	-62.9404	3708.58
518	-71.4076	3708.58
519	-75.5611	3708.58
520	-75.3844	3708.58
521	-70.8783	3708.58
522	-62.0606	3708.58
523	-48.966	3708.58
524	-31.6462	3708.58
525	-10.1695	3708.58
526	15.3792	3708.58
527	44.8992	3708.58
528	78.274	3708.58
529	115.372	3708.58
530	156.046	3708.58
531	200.137	3708.58
532	247.47	3708.58
533	297.859	3708.58
534	351.104	3708.58
535	406.996	3708.58
536	465.314	3708.58
537	525.827	3708.58
538	588.298	3708.58
539	652.479	3708.58
540	718.118	3708.58
541	784.954	3708.58
542	852.726	3708.58
543	921.164	3708.58
544	989.999	3708.58
545	1058.96	3708.58
546	1127.77	3708.58
547	1196.17	3708.58
548	1263.88	3708.58
549	1330.63	3708.58
550	1396.16	3708.58
551	1460.22	3708.58
552	1522.54	3708.58
553	1582.89	3708.58
554	1641.02	3708.58
555	1696.71	3708.58
556	1749.74	3708.58
557	1799.89	3708.58
558	1846.97	3708.58
559	1890.8	3708.58
560	1931.19	3708.58
561	1968	3708.58
562	2001.07	3708.58
563	2030.27	3708.58
564	2055.5	3708.58
565	2076.64	3708.58
566	2093.62	3708.58
567	2106.37	3708.58
568	2114.84	3708.58
569	2119	3708.58
570	2118.82	3708.58
571	2114.32	3708.58
572	2105.5	3708.58
573	2092.4	3708.58
574	2075.08	3708.58
575	2053.6	3708.58
576	2028.05	3708.58
577	1998.53	3708.58
578	1965.15	3708.58
579	1928.05	3708.58
580	1887.37	3708.58
581	1843.27	3708.58
582	1795.93	3708.58
583	1745.54	3708.58
584	1692.29	3708.58
585	1636.39	3708.58
586	1578.07	3708.58
587	1517.55	3708.58
588	1455.08	3708.58
589	1390.89	3708.58
590	1325.25	3708.58
591	1258.41	3708.58
592	1190.63	3708.58
593	1122.19	3708.58
594	1053.36	3708.58
595	984.395	3708.58
596	915.58	3708.58
597	847.185	3708.58
598	779.479	3708.58
599	712.729	3708.58
600	609.185	3709.08
601	545.482	3709.08
602	483.548	3709.08
603	423.625	3709.08
604	365.951	3709.08
605	310.752	3709.08
606	258.248	3709.08
607	208.645	3709.08
608	162.139	3709.08
609	118.913	3709.08
610	79.1374	3709.08
611	42.9702	3709.08
612	10.5535	3709.08
613	-17.9847	3709.08
614	-42.5319	3709.08
615	-62.9911	3709.08
616	-79.2816	3709.08
617	-91.3393	3709.08
618	-99.1164	3709.08
619	-102.582	3709.08
620	-101.723	3709.08
621	-96.5431	3709.08
622	-87.0618	3709.08
623	-73.3168	3709.08
624	-55.3625	3709.08
625	-33.2697	3709.08
626	-7.12557	3709.08
627	22.9667	3709.08
628	56.8884	3709.08
629	94.5057	3709.08
630	135.67	3709.08
631	180.219	3709.08
632	227.977	3709.08
633	278.756	3709.08
634	332.354	3709.08
635	388.562	3709.08
636	447.155	3709.08
637	507.905	3709.08
638	570.57	3709.08
639	634.904	3709.08
640	700.653	3709.08
641	767.557	3709.08
642	835.352	3709.08
643	903.77	3709.08
644	972.543	3709.08
645	1041.4	3709.08
646	1110.06	3709.08
647	1178.27	3709.08
648	1245.74	3709.08
649	1312.22	3709.08
650	1377.44	3709.08
651	1441.15	3709.08
652	1503.08	3709.08
653	1563.01	3709.08
654	1620.69	3709.08
655	1675.89	3709.08
656	1728.4	3709.08
657	1778.01	3709.08
658	1824.52	3709.08
659	1867.75	3709.08
660	1907.53	3709.08
661	1943.7	3709.08
662	1976.12	3709.08
663	2004.66	3709.08
664	2029.21	3709.08
665	2049.68	3709.08
666	2065.97	3709.08
667	2078.03	3709.08
668	2085.81	3709.08
669	2089.28	3709.08
670	2088.42	3709.08
671	2083.24	3709.08
672	2073.76	3709.08
673	2060.01	3709.08
674	2042.06	3709.08
675	2019.96	3709.08
676	1993.81	3709.08
677	1963.72	3709.08
678	1929.79	3709.08
679	1892.17	3709.08
680	1851	3709.08
681	1806.45	3709.08
682	1758.69	3709.08
683	1707.9	3709.08
684	1654.3	3709.08
685	1598.09	3709.08
686	1539.49	3709.08
687	1478.74	3709.08
688	1416.07	3709.08
689	1351.73	3709.08
690	1285.98	3709.08
691	1219.07	3709.08
692	1151.27	3709.08
693	1082.85	3709.08
694	1014.08	3709.08
695	945.225	3709.08
696	876.559	3709.08
697	808.355	3709.08
698	740.881	3709.08
699	674.404	3709.08
700	571.218	3710.07
701	507.944	3710.07
702	446.472	3710.07
703	387.044	3710.07
704	329.895	3710.07
705	275.25	3710.07
706	223.325	3710.07
707	174.325	3710.07
708	128.443	3710.07
709	85.8612	3710.07
710	46.7462	3710.07
711	11.253	3710.07
712	-20.4785	3710.07
713	-48.3231	3710.07
714	-72.1708	3710.07
715	-91.9276	3710.07
716	-107.515	3710.07
717	-118.873	3710.07
718	-125.955	3710.07
719	-128.735	3710.07
720	-127.2	3710.07
721	-121.357	3710.07
722	-111.229	3710.07
723	-96.8559	3710.07
724	-78.2947	3710.07
725	-55.6184	3710.07
726	-28.9166	3710.07
727	1.70542	3710.07
728	36.1268	3710.07
729	74.2117	3710.07
730	115.81	3710.07
731	160.757	3710.07
732	208.876	3710.07
733	259.977	3710.07
734	313.858	3710.07
735	370.307	3710.07
736	429.1	3710.07
737	490.006	3710.07
738	552.785	3710.07
739	617.189	3710.07
740	682.963	3710.07
741	749.848	3710.07
742	817.58	3710.07
743	885.892	3710.07
744	954.514	3710.07
745	1023.18	3710.07
746	1091.61	3710.07
747	1159.53	3710.07
748	1226.69	3710.07
749	1292.82	3710.07
750	1357.64	3710.07
751	1420.92	3710.07
752	1482.39	3710.07
753	1541.83	3710.07
754	1598.98	3710.07
755	1653.63	3710.07
756	1705.55	3710.07
757	1754.56	3710.07
758	1800.44	3710.07
759	1843.03	3710.07
760	1882.15	3710.07
761	1917.65	3710.07
762	1949.38	3710.07
763	1977.23	3710.07
764	2001.08	3710.07
765	2020.84	3710.07
766	2036.43	3710.07
767	2047.79	3710.07
768	2054.87	3710.07
769	2057.65	3710.07
770	2056.12	3710.07
771	2050.28	3710.07
772	2040.15	3710.07
773	2025.77	3710.07
774	2007.21	3710.07
775	1984.53	3710.07
776	1957.83	3710.07
777	1927.2	3710.07
778	1892.78	3710.07
779	1854.69	3710.07
780	1813.09	3710.07
781	1768.14	3710.07
782	1720.02	3710.07
783	1668.91	3710.07
784	1615.03	3710.07
785	1558.57	3710.07
786	1499.78	3710.07
787	1438.87	3710.07
788	1376.09	3710.07
789	1311.68	3710.07
790	1245.9	3710.07
791	1179.01	3710.07
792	1111.28	3710.07
793	1042.97	3710.07
794	974.344	3710.07
795	905.682	3710.07
796	837.252	3710.07
797	769.324	3710.07
798	702.167	3710.07
799	636.044	3710.07
800	533.445	3711.55
801	470.679	3711.55
802	409.745	3711.55
803	350.885	3711.55
804	294.331	3711.55
805	240.305	3711.55
806	189.022	3711.55
807	140.683	3711.55
808	95.4787	3711.55
809	53.5885	3711.55
810	15.1772	3711.55
811	-19.6037	3711.55
812	-50.6169	3711.55
813	-77.7399	3711.55
814	-100.866	3711.55
815	-119.903	3711.55
816	-134.777	3711.55
817	-145.429	3711.55
818	-151.817	3711.55
819	-153.915	3711.55
820	-151.716	3711.55
821	-145.227	3711.55
822	-134.476	3711.55
823	-119.503	3711.55
824	-100.368	3711.55
825	-77.1471	3711.55
826	-49.9313	3711.55
827	-18.8282	3711.55
828	16.0395	3711.55
829	54.5342	3711.55
830	96.504	3711.55
831	141.783	3711.55
832	190.193	3711.55
833	241.543	3711.55
834	295.63	3711.55
835	352.241	3711.55
836	411.152	3711.55
837	472.13	3711.55
838	534.936	3711.55
839	599.321	3711.55
840	665.032	3711.55
841	731.808	3711.55
842	799.387	3711.55
843	867.501	3711.55
844	935.882	3711.55
845	1004.26	3711.55
846	1072.37	3711.55
847	1139.93	3711.55
848	1206.69	3711.55
849	1272.37	3711.55
850	1336.72	3711.55
851	1399.49	3711.55
852	1460.43	3711.55
853	1519.29	3711.55
854	1575.84	3711.55
855	1629.87	3711.55
856	1681.16	3711.55
857	1729.5	3711.55
858	1774.71	3711.55
859	1816.6	3711.55
860	1855.02	3711.55
861	1889.8	3711.55
862	1920.81	3711.55
863	1947.94	3711.55
864	1971.07	3711.55
865	1990.11	3711.55
866	2004.98	3711.55
867	2015.64	3711.55
868	2022.03	3711.55
869	2024.13	3711.55
870	2021.93	3711.55
871	2015.44	3711.55
872	2004.69	3711.55
873	1989.71	3711.55
874	1970.58	3711.55
875	1947.36	3711.55
876	1920.14	3711.55
877	1889.03	3711.55
878	1854.16	3711.55
879	1815.67	3711.55
880	1773.69	3711.55
881	1728.41	3711.55
882	1680	3711.55
883	1628.65	3711.55
884	1574.56	3711.55
885	1517.94	3711.55
886	1459.03	3711.55
887	1398.05	3711.55
888	1335.24	3711.55
889	1270.85	3711.55
890	1205.14	3711.55
891	1138.36	3711.55
892	1070.78	3711.55
893	1002.67	3711.55
894	934.283	3711.55
895	865.904	3711.55
896	797.799	3711.55
897	730.235	3711.55
898	663.48	3711.55
899	597.797	3711.55
900	496.016	3713.51
901	433.838	3713.51
902	373.52	3713.51
903	315.301	3713.51
904	259.41	3713.51
905	206.069	3713.51
906	155.488	3713.51
907	107.866	3713.51
908	63.3915	3713.51
909	22.2396	3713.51
910	-15.4271	3713.51
911	-49.4599	3713.51
912	-79.7246	3713.51
913	-106.102	3713.51
914	-128.487	3713.51
915	-146.793	3713.51
916	-160.946	3713.51
917	-170.891	3713.51
918	-176.589	3713.51
919	-178.017	3713.51
920	-175.169	3713.51
921	-168.058	3713.51
922	-156.71	3713.51
923	-141.171	3713.51
924	-121.502	3713.51
925	-97.7805	3713.51
926	-70.1003	3713.51
927	-38.5705	3713.51
928	-3.31568	3713.51
929	35.5252	3713.51
930	77.7987	3713.51
931	123.338	3713.51
932	171.964	3713.51
933	223.483	3713.51
934	277.694	3713.51
935	334.382	3713.51
936	393.323	3713.51
937	454.285	3713.51
938	517.027	3713.51
939	581.301	3713.51
940	646.854	3713.51
941	713.428	3713.51
942	780.759	3713.51
943	848.581	3713.51
944	916.628	3713.51
945	984.63	3713.51
946	1052.32	3713.51
947	1119.43	3713.51
948	1185.69	3713.51
949	1250.85	3713.51
950	1314.65	3713.51
951	1376.83	3713.51
952	1437.14	3713.51
953	1495.36	3713.51
954	1551.26	3713.51
955	1604.6	3713.51
956	1655.18	3713.51
957	1702.8	3713.51
958	1747.28	3713.51
959	1788.43	3713.51
960	1826.1	3713.51
961	1860.14	3713.51
962	1890.4	3713.51
963	1916.78	3713.51
964	1939.17	3713.51
965	1957.48	3713.51
966	1971.63	3713.51
967	1981.58	3713.51
968	1987.28	3713.51
969	1988.71	3713.51
970	1985.86	3713.51
971	1978.75	3713.51
972	1967.4	3713.51
973	1951.86	3713.51
974	1932.19	3713.51
975	1908.47	3713.51
976	1880.79	3713.51
977	1849.26	3713.51
978	1814	3713.51
979	1775.16	3713.51
980	1732.89	3713.51
981	1687.35	3713.51
982	1638.72	3713.51
983	1587.2	3713.51
984	1532.98	3713.51
985	1476.29	3713.51
986	1417.35	3713.51
987	1356.39	3713.51
988	1293.64	3713.51
989	1229.37	3713.51
990	1163.81	3713.51
991	1097.24	3713.51
992	1029.91	3713.51
993	962.083	3713.51
994	894.036	3713.51
995	826.033	3713.51
996	758.343	3713.51
997	691.233	3713.51
998	624.969	3713.51
999	559.811	3713.51
1000	825.696	3708.85
1001	753.304	3708.85
1002	682.588	3708.85
1003	613.828	3708.85
1004	547.296	3708.85
1005	483.253	3708.85
1006	421.952	3708.85
1007	363.635	3708.85
1008	308.533	3708.85
1009	256.862	3708.85
1010	208.827	3708.85
1011	164.617	3708.85
1012	124.406	3708.85
1013	88.3537	3708.85
1014	56.6016	3708.85
1015	29.2751	3708.85
1016	6.48212	3708.85
1017	-11.6876	3708.85
1018	-25.1623	3708.85
1019	-33.8888	3708.85
1020	-37.8328	3708.85
1021	-36.9786	3708.85
1022	-31.3298	3708.85
1023	-20.9086	3708.85
1024	-5.7561	3708.85
1025	14.0679	3708.85
1026	38.4851	3708.85
1027	67.3991	3708.85
1028	100.696	3708.85
1029	138.244	3708.85
1030	179.896	3708.85
1031	225.486	3708.85
1032	274.836	3708.85
1033	327.75	3708.85
1034	384.019	3708.85
1035	443.422	3708.85
1036	505.724	3708.85
1037	570.679	3708.85
1038	638.032	3708.85
1039	707.515	3708.85
1040	778.856	3708.85
1041	851.772	3708.85
1042	925.976	3708.85
1043	1001.18	3708.85
1044	1077.07	3708.85
1045	1153.37	3708.85
1046	1229.76	3708.85
1047	1305.95	3708.85
1048	1381.64	3708.85
1049	1456.52	3708.85
1050	1530.31	3708.85
1051	1602.7	3708.85
1052	1673.42	3708.85
1053	1742.18	3708.85
1054	1808.72	3708.85
1055	1872.77	3708.85
1056	1934.08	3708.85
1057	1992.4	3708.85
1058	2047.51	3708.85
1059	2099.19	3708.85
1060	2147.24	3708.85
1061	2191.45	3708.85
1062	2231.67	3708.85
1063	2267.74	3708.85
1064	2299.5	3708.85
1065	2326.83	3708.85
1066	2349.63	3708.85
1067	2367.81	3708.85
1068	2381.29	3708.85
1069	2390.02	3708.85
1070	2393.97	3708.85
1071	2393.12	3708.85
1072	2387.47	3708.85
1073	2377.05	3708.85
1074	2361.9	3708.85
1075	2342.07	3708.85
1076	2317.65	3708.85
1077	2288.74	3708.85
1078	2255.44	3708.85
1079	2217.88	3708.85
1080	2176.22	3708.85
1081	2130.63	3708.85
1082	2081.27	3708.85
1083	2028.35	3708.85
1084	1972.07	3708.85
1085	1912.66	3708.85
1086	1850.35	3708.85
1087	1785.38	3708.85
1088	1718.02	3708.85
1089	1648.53	3708.85
1090	1577.18	3708.85
1091	1504.26	3708.85
1092	1430.05	3708.85
1093	1354.84	3708.85
1094	1278.94	3708.85
1095	1202.64	3708.85
1096	1126.24	3708.85
1097	1050.05	3708.85
1098	974.361	3708.85
1099	899.479	3708.85
1100	785.823	3706.34
1101	713.386	3706.34
1102	642.68	3706.34
1103	573.984	3706.34
1104	507.57	3706.34
1105	443.699	3706.34
1106	382.624	3706.34
1107	324.585	3706.34
1108	269.812	3706.34
1109	218.52	3706.34
1110	170.912	3706.34
1111	127.177	3706.34
1112	87.4853	3706.34
1113	51.9949	3706.34
1114	20.8455	3706.34
1115	-5.84008	3706.34
1116	-27.9565	3706.34
1117	-45.4165	3706.34
1118	-58.1513	3706.34
1119	-66.1106	3706.34
1120	-69.263	3706.34
1121	-67.5962	3706.34
1122	-61.1166	3706.34
1123	-49.8499	3706.34
1124	-33.8406	3706.34
1125	-13.1518	3706.34
1126	12.1349	3706.34
1127	41.9196	3706.34
1128	76.0849	3706.34
1129	114.496	3706.34
1130	157.001	3706.34
1131	203.433	3706.34
1132	253.608	3706.34
1133	307.328	3706.34
1134	364.382	3706.34
1135	424.544	3706.34
1136	487.577	3706.34
1137	553.232	3706.34
1138	621.25	3706.34
1139	691.363	3706.34
1140	763.294	3706.34
1141	836.759	3706.34
1142	911.468	3706.34
1143	987.127	3706.34
1144	1063.44	3706.34
1145	1140.1	3706.34
1146	1216.8	3706.34
1147	1293.26	3706.34
1148	1369.15	3706.34
1149	1444.19	3706.34
1150	1518.07	3706.34
1151	1590.51	3706.34
1152	1661.22	3706.34
1153	1729.93	3706.34
1154	1796.35	3706.34
1155	1860.22	3706.34
1156	1921.31	3706.34
1157	1979.35	3706.34
1158	2034.14	3706.34
1159	2085.44	3706.34
1160	2133.05	3706.34
1161	2176.8	3706.34
1162	2216.5	3706.34
1163	2252	3706.34
1164	2283.16	3706.34
1165	2309.85	3706.34
1166	2331.97	3706.34
1167	2349.44	3706.34
1168	2362.18	3706.34
1169	2370.14	3706.34
1170	2373.3	3706.34
1171	2371.63	3706.34
1172	2365.15	3706.34
1173	2353.89	3706.34
1174	2337.88	3706.34
1175	2317.19	3706.34
1176	2291.9	3706.34
1177	2262.11	3706.34
1178	2227.94	3706.34
1179	2189.52	3706.34
1180	2147.01	3706.34
1181	2100.57	3706.34
1182	2050.38	3706.34
1183	1996.65	3706.34
1184	1939.59	3706.34
1185	1879.42	3706.34
1186	1816.38	3706.34
1187	1750.71	3706.34
1188	1682.69	3706.34
1189	1612.57	3706.34
1190	1540.63	3706.34
1191	1467.16	3706.34
1192	1392.44	3706.34
1193	1316.78	3706.34
1194	1240.46	3706.34
1195	1163.8	3706.34
1196	1087.09	3706.34
1197	1010.64	3706.34
1198	934.742	3706.34
1199	859.706	3706.34
1200	745.148	3704.46
1201	672.747	3704.46
1202	602.131	3704.46
1203	533.579	3704.46
1204	467.362	3704.46
1205	403.742	3704.46
1206	342.968	3704.46
1207	285.281	3704.46
1208	230.909	3704.46
1209	180.065	3704.46
1210	132.952	3704.46
1211	89.7535	3704.46
1212	50.6412	3704.46
1213	15.7691	3704.46
1214	-14.7251	3704.46
1215	-40.7212	3704.46
1216	-62.1167	3704.46
1217	-78.8271	3704.46
1218	-90.7865	3704.46
1219	-97.9478	3704.46
1220	-100.283	3704.46
1221	-97.782	3704.46
1222	-90.4555	3704.46
1223	-78.3323	3704.46
1224	-61.4601	3704.46
1225	-39.9055	3704.46
1226	-13.7536	3704.46
1227	16.8926	3704.46
1228	51.9119	3704.46
1229	91.1664	3704.46
1230	134.501	3704.46
1231	181.745	3704.46
1232	232.712	3704.46
1233	287.2	3704.46
1234	344.995	3704.46
1235	405.869	3704.46
1236	469.582	3704.46
1237	535.881	3704.46
1238	604.507	3704.46
1239	675.186	3704.46
1240	747.642	3704.46
1241	821.588	3704.46
1242	896.732	3704.46
1243	972.777	3704.46
1244	1049.42	3704.46
1245	1126.37	3704.46
1246	1203.31	3704.46
1247	1279.95	3704.46
1248	1355.97	3704.46
1249	1431.08	3704.46
1250	1504.98	3704.46
1251	1577.39	3704.46
1252	1648.01	3704.46
1253	1716.57	3704.46
1254	1782.79	3704.46
1255	1846.42	3704.46
1256	1907.2	3704.46
1257	1964.9	3704.46
1258	2019.28	3704.46
1259	2070.13	3704.46
1260	2117.26	3704.46
1261	2160.46	3704.46
1262	2199.59	3704.46
1263	2234.47	3704.46
1264	2264.97	3704.46
1265	2290.97	3704.46
1266	2312.37	3704.46
1267	2329.09	3704.46
1268	2341.05	3704.46
1269	2348.22	3704.46
1270	2350.55	3704.46
1271	2348.05	3704.46
1272	2340.73	3704.46
1273	2328.6	3704.46
1274	2311.73	3704.46
1275	2290.17	3704.46
1276	2264.01	3704.46
1277	2233.36	3704.46
1278	2198.34	3704.46
1279	2159.08	3704.46
1280	2115.73	3704.46
1281	2068.48	3704.46
1282	2017.51	3704.46
1283	1963.01	3704.46
1284	1905.2	3704.46
1285	1844.32	3704.46
1286	1780.6	3704.46
1287	1714.29	3704.46
1288	1645.66	3704.46
1289	1574.97	3704.46
1290	1502.51	3704.46
1291	1428.55	3704.46
1292	1353.4	3704.46
1293	1277.35	3704.46
1294	1200.7	3704.46
1295	1123.76	3704.46
1296	1046.81	3704.46
1297	970.18	3704.46
1298	894.159	3704.46
1299	819.049	3704.46
1300	703.858	3703.19
1301	631.574	3703.19
1302	561.13	3703.19
1303	492.802	3703.19
1304	426.861	3703.19
1305	363.566	3703.19
1306	303.168	3703.19
1307	245.905	3703.19
1308	192.002	3703.19
1309	141.673	3703.19
1310	95.1158	3703.19
1311	52.5142	3703.19
1312	14.0362	3703.19
1313	-20.1662	3703.19
1314	-49.9581	3703.19
1315	-75.2221	3703.19
1316	-95.8584	3703.19
1317	-111.786	3703.19
1318	-122.941	3703.19
1319	-129.281	3703.19
1320	-130.779	3703.19
1321	-127.431	3703.19
1322	-119.249	3703.19
1323	-106.266	3703.19
1324	-88.5329	3703.19
1325	-66.1196	3703.19
1326	-39.1146	3703.19
1327	-7.62454	3703.19
1328	28.2265	3703.19
1329	68.2969	3703.19
1330	112.429	3703.19
1331	160.448	3703.19
1332	212.165	3703.19
1333	267.375	3703.19
1334	325.862	3703.19
1335	387.393	3703.19
1336	451.727	3703.19
1337	518.61	3703.19
1338	587.777	3703.19
1339	658.956	3703.19
1340	731.865	3703.19
1341	806.218	3703.19
1342	881.721	3703.19
1343	958.075	3703.19
1344	1034.98	3703.19
1345	1112.13	3703.19
1346	1189.23	3703.19
1347	1265.96	3703.19
1348	1342.03	3703.19
1349	1417.13	3703.19
1350	1490.97	3703.19
1351	1563.26	3703.19
1352	1633.71	3703.19
1353	1702.04	3703.19
1354	1767.99	3703.19
1355	1831.3	3703.19
1356	1891.7	3703.19
1357	1948.98	3703.19
1358	2002.89	3703.19
1359	2053.23	3703.19
1360	2099.79	3703.19
1361	2142.4	3703.19
1362	2180.89	3703.19
1363	2215.1	3703.19
1364	2244.9	3703.19
1365	2270.17	3703.19
1366	2290.81	3703.19
1367	2306.74	3703.19
1368	2317.9	3703.19
1369	2324.24	3703.19
1370	2325.74	3703.19
1371	2322.4	3703.19
1372	2314.21	3703.19
1373	2301.23	3703.19
1374	2283.49	3703.19
1375	2261.07	3703.19
1376	2234.06	3703.19
1377	2202.57	3703.19
1378	2166.71	3703.19
1379	2126.63	3703.19
1380	2082.49	3703.19
1381	2034.46	3703.19
1382	1982.74	3703.19
1383	1927.52	3703.19
1384	1869.02	3703.19
1385	1807.48	3703.19
1386	1743.14	3703.19
1387	1676.25	3703.19
1388	1607.07	3703.19
1389	1535.89	3703.19
1390	1462.97	3703.19
1391	1388.61	3703.19
1392	1313.1	3703.19
1393	1236.75	3703.19
1394	1159.84	3703.19
1395	1082.69	3703.19
1396	1005.59	3703.19
1397	928.86	3703.19
1398	852.795	3703.19
1399	777.695	3703.19
1400	662.141	3702.56
1401	590.058	3702.56
1402	519.866	3702.56
1403	451.841	3702.56
1404	386.253	3702.56
1405	323.36	3702.56
1406	263.41	3702.56
1407	206.64	3702.56
1408	153.273	3702.56
1409	103.52	3702.56
1410	57.5785	3702.56
1411	15.6284	3702.56
1412	-22.1644	3702.56
1413	-55.6508	3702.56
1414	-84.6987	3702.56
1415	-109.194	3702.56
1416	-129.039	3702.56
1417	-144.156	3702.56
1418	-154.485	3702.56
1419	-159.986	3702.56
1420	-160.636	3702.56
1421	-156.435	3702.56
1422	-147.397	3702.56
1423	-133.558	3702.56
1424	-114.974	3702.56
1425	-91.7168	3702.56
1426	-63.8791	3702.56
1427	-31.5705	3702.56
1428	5.08164	3702.56
1429	45.9326	3702.56
1430	90.8214	3702.56
1431	139.571	3702.56
1432	191.988	3702.56
1433	247.867	3702.56
1434	306.987	3702.56
1435	369.115	3702.56
1436	434.006	3702.56
1437	501.402	3702.56
1438	571.04	3702.56
1439	642.643	3702.56
1440	715.93	3702.56
1441	790.611	3702.56
1442	866.391	3702.56
1443	942.971	3702.56
1444	1020.05	3702.56
1445	1097.32	3702.56
1446	1174.48	3702.56
1447	1251.23	3702.56
1448	1327.26	3702.56
1449	1402.27	3702.56
1450	1475.96	3702.56
1451	1548.05	3702.56
1452	1618.25	3702.56
1453	1686.28	3702.56
1454	1751.88	3702.56
1455	1814.78	3702.56
1456	1874.74	3702.56
1457	1931.52	3702.56
1458	1984.89	3702.56
1459	2034.66	3702.56
1460	2080.61	3702.56
1461	2122.57	3702.56
1462	2160.37	3702.56
1463	2193.86	3702.56
1464	2222.91	3702.56
1465	2247.42	3702.56
1466	2267.27	3702.56
1467	2282.39	3702.56
1468	2292.72	3702.56
1469	2298.22	3702.56
1470	2298.87	3702.56
1471	2294.67	3702.56
1472	2285.63	3702.56
1473	2271.79	3702.56
1474	2253.2	3702.56
1475	2229.94	3702.56
1476	2202.09	3702.56
1477	2169.78	3702.56
1478	2133.12	3702.56
1479	2092.26	3702.56
1480	2047.36	3702.56
1481	1998.6	3702.56
1482	1946.18	3702.56
1483	1890.29	3702.56
1484	1831.16	3702.56
1485	1769.02	3702.56
1486	1704.12	3702.56
1487	1636.72	3702.56
1488	1567.07	3702.56
1489	1495.46	3702.56
1490	1422.17	3702.56
1491	1347.49	3702.56
1492	1271.7	3702.56
1493	1195.12	3702.56
1494	1118.04	3702.56
1495	1040.76	3702.56
1496	963.604	3702.56
1497	886.86	3702.56
1498	810.835	3702.56
1499	735.83	3702.56
1500	620.181	3702.56
1501	548.382	3702.56
1502	478.524	3702.56
1503	410.883	3702.56
1504	345.724	3702.56
1505	283.306	3702.56
1506	223.875	3702.56
1507	167.665	3702.56
1508	114.898	3702.56
1509	65.7818	3702.56
1510	20.5106	3702.56
1511	-20.7369	3702.56
1512	-57.7982	3702.56
1513	-90.5271	3702.56
1514	-118.794	3702.56
1515	-142.488	3702.56
1516	-161.516	3702.56
1517	-175.802	3702.56
1518	-185.289	3702.56
1519	-189.942	3702.56
1520	-189.74	3702.56
1521	-184.685	3702.56
1522	-174.798	3702.56
1523	-160.116	3702.56
1524	-140.698	3702.56
1525	-116.62	3702.56
1526	-87.9783	3702.56
1527	-54.8846	3702.56
1528	-17.4699	3702.56
1529	24.1182	3702.56
1530	69.7156	3702.56
1531	119.142	3702.56
1532	172.204	3702.56
1533	228.69	3702.56
1534	288.378	3702.56
1535	351.033	3702.56
1536	416.408	3702.56
1537	484.244	3702.56
1538	554.274	3702.56
1539	626.221	3702.56
1540	699.802	3702.56
1541	774.727	3702.56
1542	850.698	3702.56
1543	927.418	3702.56
1544	1004.58	3702.56
1545	1081.89	3702.56
1546	1159.03	3702.56
1547	1235.7	3702.56
1548	1311.6	3702.56
1549	1386.43	3702.56
1550	1459.89	3702.56
1551	1531.69	3702.56
1552	1601.56	3702.56
1553	1669.21	3702.56
1554	1734.37	3702.56
1555	1796.8	3702.56
1556	1856.24	3702.56
1557	1912.46	3702.56
1558	1965.24	3702.56
1559	2014.36	3702.56
1560	2059.64	3702.56
1561	2100.9	3702.56
1562	2137.97	3702.56
1563	2170.7	3702.56
1564	2198.98	3702.56
1565	2222.68	3702.56
1566	2241.71	3702.56
1567	2256	3702.56
1568	2265.49	3702.56
1569	2270.14	3702.56
1570	2269.94	3702.56
1571	2264.88	3702.56
1572	2254.99	3702.56
1573	2240.31	3702.56
1574	2220.88	3702.56
1575	2196.8	3702.56
1576	2168.15	3702.56
1577	2135.05	3702.56
1578	2097.63	3702.56
1579	2056.03	3702.56
1580	2010.43	3702.56
1581	1960.99	3702.56
1582	1907.92	3702.56
1583	1851.42	3702.56
1584	1791.73	3702.56
1585	1729.06	3702.56
1586	1663.68	3702.56
1587	1595.84	3702.56
1588	1525.8	3702.56
1589	1453.85	3702.56
1590	1380.26	3702.56
1591	1305.33	3702.56
1592	1229.36	3702.56
1593	1152.63	3702.56
1594	1075.47	3702.56
1595	998.164	3702.56
1596	921.025	3702.56
1597	844.357	3702.56
1598	768.461	3702.56
1599	693.637	3702.56
1600	578.154	3703.19
1601	506.724	3703.19
1602	437.283	3703.19
1603	370.103	3703.19
1604	305.451	3703.19
1605	243.582	3703.19
1606	184.739	3703.19
1607	129.154	3703.19
1608	77.0479	3703.19
1609	28.6251	3703.19
1610	-15.9231	3703.19
1611	-56.4208	3703.19
1612	-92.7084	3703.19
1613	-124.643	3703.19
1614	-152.097	3703.19
1615	-174.965	3703.19
1616	-193.154	3703.19
1617	-206.594	3703.19
1618	-215.23	3703.19
1619	-219.031	3703.19
1620	-217.979	3703.19
1621	-212.08	3703.19
1622	-201.356	3703.19
1623	-185.851	3703.19
1624	-165.624	3703.19
1625	-140.757	3703.19
1626	-111.346	3703.19
1627	-77.5091	3703.19
1628	-39.3783	3703.19
1629	2.89556	3703.19
1630	49.1456	3703.19
1631	99.1894	3703.19
1632	152.829	3703.19
1633	209.854	3703.19
1634	270.038	3703.19
1635	333.145	3703.19
1636	398.925	3703.19
1637	467.118	3703.19
1638	537.456	3703.19
1639	609.661	3703.19
1640	683.447	3703.19
1641	758.525	3703.19
1642	834.597	3703.19
1643	911.364	3703.19
1644	988.522	3703.19
1645	1065.77	3703.19
1646	1142.79	3703.19
1647	1219.3	3703.19
1648	1294.98	3703.19
1649	1369.54	3703.19
1650	1442.68	3703.19
1651	1514.12	3703.19
1652	1583.57	3703.19
1653	1650.75	3703.19
1654	1715.41	3703.19
1655	1777.29	3703.19
1656	1836.14	3703.19
1657	1891.74	3703.19
1658	1943.85	3703.19
1659	1992.28	3703.19
1660	2036.84	3703.19
1661	2077.34	3703.19
1662	2113.64	3703.19
1663	2145.58	3703.19
1664	2173.04	3703.19
1665	2195.91	3703.19
1666	2214.1	3703.19
1667	2227.55	3703.19
1668	2236.18	3703.19
1669	2239.98	3703.19
1670	2238.93	3703.19
1671	2233.03	3703.19
1672	2222.3	3703.19
1673	2206.8	3703.19
1674	2186.56	3703.19
1675	2161.69	3703.19
1676	2132.27	3703.19
1677	2098.43	3703.19
1678	2060.29	3703.19
1679	2018.01	3703.19
1680	1971.75	3703.19
1681	1921.7	3703.19
1682	1868.05	3703.19
1683	1811.02	3703.19
1684	1750.82	3703.19
1685	1687.71	3703.19
1686	1621.92	3703.19
1687	1553.72	3703.19
1688	1483.38	3703.19
1689	1411.17	3703.19
1690	1337.38	3703.19
1691	1262.29	3703.19
1692	1186.22	3703.19
1693	1109.45	3703.19
1694	1032.29	3703.19
1695	955.048	3703.19
1696	878.023	3703.19
1697	801.521	3703.19
1698	725.844	3703.19
1699	651.29	3703.19
1700	536.227	3704.46
1701	465.252	3704.46
1702	396.31	3704.46
1703	329.673	3704.46
1704	265.603	3704.46
1705	204.354	3704.46
1706	146.168	3704.46
1707	91.2726	3704.46
1708	39.8861	3704.46
1709	-7.78929	3704.46
1710	-51.5654	3704.46
1711	-91.2695	3704.46
1712	-126.745	3704.46
1713	-157.852	3704.46
1714	-184.467	3704.46
1715	-206.487	3704.46
1716	-223.823	3704.46
1717	-236.407	3704.46
1718	-244.19	3704.46
1719	-247.141	3704.46
1720	-245.248	3704.46
1721	-238.52	3704.46
1722	-226.981	3704.46
1723	-210.679	3704.46
1724	-189.676	3704.46
1725	-164.057	3704.46
1726	-133.922	3704.46
1727	-99.3897	3704.46
1728	-60.5969	3704.46
1729	-17.6963	3704.46
1730	29.1427	3704.46
1731	79.7354	3704.46
1732	133.882	3704.46
1733	191.369	3704.46
1734	251.97	3704.46
1735	315.444	3704.46
1736	381.543	3704.46
1737	450.005	3704.46
1738	520.56	3704.46
1739	592.93	3704.46
1740	666.828	3704.46
1741	741.964	3704.46
1742	818.041	3704.46
1743	894.758	3704.46
1744	971.813	3704.46
1745	1048.9	3704.46
1746	1125.72	3704.46
1747	1201.97	3704.46
1748	1277.34	3704.46
1749	1351.53	3704.46
1750	1424.27	3704.46
1751	1495.25	3704.46
1752	1564.2	3704.46
1753	1630.84	3704.46
1754	1694.92	3704.46
1755	1756.18	3704.46
1756	1814.37	3704.46
1757	1869.27	3704.46
1758	1920.67	3704.46
1759	1968.35	3704.46
1760	2012.13	3704.46
1761	2051.84	3704.46
1762	2087.33	3704.46
1763	2118.44	3704.46
1764	2145.06	3704.46
1765	2167.08	3704.46
1766	2184.42	3704.46
1767	2197.01	3704.46
1768	2204.79	3704.46
1769	2207.74	3704.46
1770	2205.85	3704.46
1771	2199.12	3704.46
1772	2187.58	3704.46
1773	2171.27	3704.46
1774	2150.26	3704.46
1775	2124.64	3704.46
1776	2094.49	3704.46
1777	2059.96	3704.46
1778	2021.16	3704.46
1779	1978.25	3704.46
1780	1931.4	3704.46
1781	1880.8	3704.46
1782	1826.64	3704.46
1783	1769.15	3704.46
1784	1708.54	3704.46
1785	1645.06	3704.46
1786	1578.95	3704.46
1787	1510.49	3704.46
1788	1439.93	3704.46
1789	1367.55	3704.46
1790	1293.65	3704.46
1791	1218.51	3704.46
1792	1142.43	3704.46
1793	1065.71	3704.46
1794	988.659	3704.46
1795	911.571	3704.46
1796	834.755	3704.46
1797	758.514	3704.46
1798	683.148	3704.46
1799	608.954	3704.46
1800	494.559	3706.34
1801	424.126	3706.34
1802	355.767	3706.34
1803	289.752	3706.34
1804	226.341	3706.34
1805	165.784	3706.34
1806	108.321	3706.34
1807	54.1775	3706.34
1808	3.56784	3706.34
1809	-43.3084	3706.34
1810	-86.2663	3706.34
1811	-125.136	3706.34
1812	-159.765	3706.34
1813	-190.016	3706.34
1814	-215.77	3706.34
1815	-236.925	3706.34
1816	-253.398	3706.34
1817	-265.123	3706.34
1818	-272.055	3706.34
1819	-274.166	3706.34
1820	-271.447	3706.34
1821	-263.911	3706.34
1822	-251.585	3706.34
1823	-234.519	3706.34
1824	-212.78	3706.34
1825	-186.455	3706.34
1826	-155.646	3706.34
1827	-120.475	3706.34
1828	-81.0815	3706.34
1829	-37.6205	3706.34
1830	9.73646	3706.34
1831	60.8026	3706.34
1832	115.376	3706.34
1833	173.242	3706.34
1834	234.172	3706.34
1835	297.926	3706.34
1836	364.251	3706.34
1837	432.887	3706.34
1838	503.562	3706.34
1839	575.998	3706.34
1840	649.909	3706.34
1841	725.002	3706.34
1842	800.982	3706.34
1843	877.549	3706.34
1844	954.4	3706.34
1845	1031.23	3706.34
1846	1107.74	3706.34
1847	1183.63	3706.34
1848	1258.59	3706.34
1849	1332.34	3706.34
1850	1404.57	3706.34
1851	1475.01	3706.34
1852	1543.38	3706.34
1853	1609.4	3706.34
1854	1672.82	3706.34
1855	1733.38	3706.34
1856	1790.85	3706.34
1857	1845	3706.34
1858	1895.62	3706.34
1859	1942.5	3706.34
1860	1985.46	3706.34
1861	2024.34	3706.34
1862	2058.97	3706.34
1863	2089.23	3706.34
1864	2114.99	3706.34
1865	2136.14	3706.34
1866	2152.62	3706.34
1867	2164.35	3706.34
1868	2171.28	3706.34
1869	2173.39	3706.34
1870	2170.67	3706.34
1871	2163.13	3706.34
1872	2150.8	3706.34
1873	2133.73	3706.34
1874	2111.99	3706.34
1875	2085.66	3706.34
1876	2054.84	3706.34
1877	2019.66	3706.34
1878	1980.26	3706.34
1879	1936.8	3706.34
1880	1889.43	3706.34
1881	1838.36	3706.34
1882	1783.78	3706.34
1883	1725.91	3706.34
1884	1664.97	3706.34
1885	1601.21	3706.34
1886	1534.88	3706.34
1887	1466.24	3706.34
1888	1395.56	3706.34
1889	1323.12	3706.34
1890	1249.21	3706.34
1891	1174.11	3706.34
1892	1098.13	3706.34
1893	1021.56	3706.34
1894	944.711	3706.34
1895	867.879	3706.34
1896	791.371	3706.34
1897	715.487	3706.34
1898	640.527	3706.34
1899	566.788	3706.34
1900	453.302	3708.85
1901	383.5	3708.85
1902	315.809	3708.85
1903	250.496	3708.85
1904	187.819	3708.85
1905	128.026	3708.85
1906	71.352	3708.85
1907	18.0211	3708.85
1908	-31.7564	3708.85
1909	-77.7841	3708.85
1910	-119.88	3708.85
1911	-157.879	3708.85
1912	-191.63	3708.85
1913	-221	3708.85
1914	-245.874	3708.85
1915	-266.153	3708.85
1916	-281.758	3708.85
1917	-292.626	3708.85
1918	-298.714	3708.85
1919	-300	3708.85
1920	-296.477	3708.85
1921	-288.16	3708.85
1922	-275.081	3708.85
1923	-257.292	3708.85
1924	-234.864	3708.85
1925	-207.884	3708.85
1926	-176.459	3708.85
1927	-140.713	3708.85
1928	-100.788	3708.85
1929	-56.8396	3708.85
1930	-9.04276	3708.85
1931	42.4144	3708.85
1932	97.3288	3708.85
1933	155.484	3708.85
1934	216.65	3708.85
1935	280.586	3708.85
1936	347.039	3708.85
1937	415.748	3708.85
1938	486.44	3708.85
1939	558.838	3708.85
1940	632.655	3708.85
1941	707.6	3708.85
1942	783.378	3708.85
1943	859.688	3708.85
1944	936.231	3708.85
1945	1012.7	3708.85
1946	1088.8	3708.85
1947	1164.23	3708.85
1948	1238.69	3708.85
1949	1311.89	3708.85
1950	1383.53	3708.85
1951	1453.34	3708.85
1952	1521.03	3708.85
1953	1586.35	3708.85
1954	1649.04	3708.85
1955	1708.83	3708.85
1956	1765.51	3708.85
1957	1818.85	3708.85
1958	1868.63	3708.85
1959	1914.67	3708.85
1960	1956.77	3708.85
1961	1994.77	3708.85
1962	2028.53	3708.85
1963	2057.9	3708.85
1964	2082.78	3708.85
1965	2103.06	3708.85
1966	2118.66	3708.85
1967	2129.53	3708.85
1968	2135.62	3708.85
1969	2136.9	3708.85
1970	2133.38	3708.85
1971	2125.06	3708.85
1972	2111.98	3708.85
1973	2094.19	3708.85
1974	2071.75	3708.85
1975	2044.77	3708.85
1976	2013.34	3708.85
1977	1977.59	3708.85
1978	1937.66	3708.85
1979	1893.71	3708.85
1980	1845.9	3708.85
1981	1794.44	3708.85
1982	1739.52	3708.85
1983	1681.36	3708.85
1984	1620.19	3708.85
1985	1556.25	3708.85
1986	1489.79	3708.85
1987	1421.08	3708.85
1988	1350.38	3708.85
1989	1277.98	3708.85
1990	1204.16	3708.85
1991	1129.22	3708.85
1992	1053.44	3708.85
1993	977.126	3708.85
1994	900.584	3708.85
1995	824.113	3708.85
1996	748.014	3708.85
1997	672.588	3708.85
1998	598.132	3708.85
1999	524.941	3708.85
2000	830.756	3712.67
2001	764.209	3712.67
2002	699.224	3712.67
2003	636.057	3712.67
2004	574.957	3712.67
2005	516.166	3712.67
2006	459.916	3712.67
2007	406.428	3712.67
2008	355.914	3712.67
2009	308.573	3712.67
2010	264.592	3712.67
2011	224.144	3712.67
2012	187.389	3712.67
2013	154.471	3712.67
2014	125.522	3712.67
2015	100.655	3712.67
2016	79.9673	3712.67
2017	63.5417	3712.67
2018	51.4426	3712.67
2019	43.7177	3712.67
2020	40.3975	3712.67
2021	41.495	3712.67
2022	47.0059	3712.67
2023	56.9085	3712.67
2024	71.1637	3712.67
2025	89.7151	3712.67
2026	112.49	3712.67
2027	139.397	3712.67
2028	170.332	3712.67
2029	205.172	3712.67
2030	243.779	3712.67
2031	286.001	3712.67
2032	331.672	3712.67
2033	380.611	3712.67
2034	432.625	3712.67
2035	487.51	3712.67
2036	545.047	3712.67
2037	605.011	3712.67
2038	667.165	3712.67
2039	731.264	3712.67
2040	797.054	3712.67
2041	864.275	3712.67
2042	932.664	3712.67
2043	1001.95	3712.67
2044	1071.86	3712.67
2045	1142.11	3712.67
2046	1212.44	3712.67
2047	1282.56	3712.67
2048	1352.2	3712.67
2049	1421.07	3712.67
2050	1488.92	3712.67
2051	1555.47	3712.67
2052	1620.46	3712.67
2053	1683.63	3712.67
2054	1744.73	3712.67
2055	1803.52	3712.67
2056	1859.78	3712.67
2057	1913.27	3712.67
2058	1963.79	3712.67
2059	2011.14	3712.67
2060	2055.13	3712.67
2061	2095.58	3712.67
2062	2132.34	3712.67
2063	2165.27	3712.67
2064	2194.22	3712.67
2065	2219.1	3712.67
2066	2239.79	3712.67
2067	2256.22	3712.67
2068	2268.33	3712.67
2069	2276.06	3712.67
2070	2279.38	3712.67
2071	2278.28	3712.67
2072	2272.78	3712.67
2073	2262.88	3712.67
2074	2248.62	3712.67
2075	2230.07	3712.67
2076	2207.29	3712.67
2077	2180.38	3712.67
2078	2149.45	3712.67
2079	2114.6	3712.67
2080	2075.99	3712.67
2081	2033.77	3712.67
2082	1988.09	3712.67
2083	1939.15	3712.67
2084	1887.12	3712.67
2085	1832.23	3712.67
2086	1774.69	3712.67
2087	1714.72	3712.67
2088	1652.56	3712.67
2089	1588.45	3712.67
2090	1522.66	3712.67
2091	1455.43	3712.67
2092	1387.03	3712.67
2093	1317.74	3712.67
2094	1247.83	3712.67
2095	1177.57	3712.67
2096	1107.24	3712.67
2097	1037.12	3712.67
2098	967.48	3712.67
2099	898.603	3712.67
2100	828.801	3711.62
2101	760.332	3711.62
2102	693.464	3711.62
2103	628.459	3711.62
2104	565.575	3711.62
2105	505.06	3711.62
2106	447.152	3711.62
2107	392.08	3711.62
2108	340.061	3711.62
2109	291.301	3711.62
2110	245.991	3711.62
2111	204.312	3711.62
2112	166.427	3711.62
2113	132.485	3711.62
2114	102.62	3711.62
2115	76.9516	3711.62
2116	55.5793	3711.62
2117	38.5879	3711.62
2118	26.0444	3711.62
2119	17.9983	3711.62
2120	14.4814	3711.62
2121	15.5075	3711.62
2122	21.0725	3711.62
2123	31.1544	3711.62
2124	45.7134	3711.62
2125	64.6922	3711.62
2126	88.0157	3711.62
2127	115.592	3711.62
2128	147.312	3711.62
2129	183.051	3711.62
2130	222.668	3711.62
2131	266.006	3711.62
2132	312.895	3711.62
2133	363.149	3711.62
2134	416.57	3711.62
2135	472.947	3711.62
2136	532.058	3711.62
2137	593.67	3711.62
2138	657.54	3711.62
2139	723.415	3711.62
2140	791.035	3711.62
2141	860.134	3711.62
2142	930.44	3711.62
2143	1001.67	3711.62
2144	1073.55	3711.62
2145	1145.8	3711.62
2146	1218.12	3711.62
2147	1290.24	3711.62
2148	1361.87	3711.62
2149	1432.72	3711.62
2150	1502.52	3711.62
2151	1570.99	3711.62
2152	1637.86	3711.62
2153	1702.87	3711.62
2154	1765.76	3711.62
2155	1826.28	3711.62
2156	1884.19	3711.62
2157	1939.27	3711.62
2158	1991.29	3711.62
2159	2040.06	3711.62
2160	2085.38	3711.62
2161	2127.06	3711.62
2162	2164.96	3711.62
2163	2198.91	3711.62
2164	2228.78	3711.62
2165	2254.45	3711.62
2166	2275.83	3711.62
2167	2292.83	3711.62
2168	2305.38	3711.62
2169	2313.43	3711.62
2170	2316.95	3711.62
2171	2315.93	3711.62
2172	2310.36	3711.62
2173	2300.28	3711.62
2174	2285.73	3711.62
2175	2266.75	3711.62
2176	2243.42	3711.62
2177	2215.84	3711.62
2178	2184.12	3711.62
2179	2148.38	3711.62
2180	2108.76	3711.62
2181	2065.41	3711.62
2182	2018.52	3711.62
2183	1968.26	3711.62
2184	1914.83	3711.62
2185	1858.44	3711.62
2186	1799.33	3711.62
2187	1737.71	3711.62
2188	1673.83	3711.62
2189	1607.95	3711.62
2190	1540.32	3711.62
2191	1471.21	3711.62
2192	1400.9	3711.62
2193	1329.66	3711.62
2194	1257.78	3711.62
2195	1185.53	3711.62
2196	1113.2	3711.62
2197	1041.08	3711.62
2198	969.452	3711.62
2199	898.599	3711.62
2200	827.106	3710.35
2201	756.689	3710.35
2202	687.911	3710.35
2203	621.042	3710.35
2204	556.347	3710.35
2205	494.081	3710.35
2206	434.49	3710.35
2207	377.809	3710.35
2208	324.261	3710.35
2209	274.058	3710.35
2210	227.397	3710.35
2211	184.464	3710.35
2212	145.427	3710.35
2213	110.44	3710.35
2214	79.6419	3710.35
2215	53.1535	3710.35
2216	31.0795	3710.35
2217	13.5069	3710.35
2218	0.505119	3710.35
2219	-7.87463	3710.35
2220	-11.5993	3710.35
2221	-10.6542	3710.35
2222	-5.0431	3710.35
2223	5.21186	3710.35
2224	20.0702	3710.35
2225	39.4733	3710.35
2226	63.3445	3710.35
2227	91.5897	3710.35
2228	124.097	3710.35
2229	160.739	3710.35
2230	201.371	3710.35
2231	245.832	3710.35
2232	293.947	3710.35
2233	345.526	3710.35
2234	400.365	3710.35
2235	458.249	3710.35
2236	518.948	3710.35
2237	582.224	3710.35
2238	647.826	3710.35
2239	715.496	3710.35
2240	784.967	3710.35
2241	855.964	3710.35
2242	928.208	3710.35
2243	1001.41	3710.35
2244	1075.29	3710.35
2245	1149.55	3710.35
2246	1223.9	3710.35
2247	1298.04	3710.35
2248	1371.68	3710.35
2249	1444.53	3710.35
2250	1516.31	3710.35
2251	1586.73	3710.35
2252	1655.51	3710.35
2253	1722.38	3710.35
2254	1787.08	3710.35
2255	1849.35	3710.35
2256	1908.95	3710.35
2257	1965.64	3710.35
2258	2019.2	3710.35
2259	2069.41	3710.35
2260	2116.07	3710.35
2261	2159.02	3710.35
2262	2198.06	3710.35
2263	2233.06	3710.35
2264	2263.86	3710.35
2265	2290.36	3710.35
2266	2312.44	3710.35
2267	2330.02	3710.35
2268	2343.03	3710.35
2269	2351.41	3710.35
2270	2355.14	3710.35
2271	2354.2	3710.35
2272	2348.59	3710.35
2273	2338.33	3710.35
2274	2323.48	3710.35
2275	2304.07	3710.35
2276	2280.2	3710.35
2277	2251.95	3710.35
2278	2219.44	3710.35
2279	2182.79	3710.35
2280	2142.16	3710.35
2281	2097.69	3710.35
2282	2049.57	3710.35
2283	1997.98	3710.35
2284	1943.13	3710.35
2285	1885.24	3710.35
2286	1824.54	3710.35
2287	1761.25	3710.35
2288	1695.64	3710.35
2289	1627.96	3710.35
2290	1558.49	3710.35
2291	1487.48	3710.35
2292	1415.23	3710.35
2293	1342.02	3710.35
2294	1268.14	3710.35
2295	1193.88	3710.35
2296	1119.53	3710.35
2297	1045.38	3710.35
2298	971.738	3710.35
2299	898.883	3710.35
2300	485.676	3712.67
2301	421.635	3712.67
2302	359.515	3712.67
2303	299.562	3712.67
2304	242.012	3712.67
2305	187.093	3712.67
2306	135.02	3712.67
2307	86.0002	3712.67
2308	40.226	3712.67
2309	-2.1216	3712.67
2310	-40.8755	3712.67
2311	-75.8828	3712.67
2312	-107.005	3712.67
2313	-134.12	3712.67
2314	-157.121	3712.67
2315	-175.916	3712.67
2316	-190.431	3712.67
2317	-200.61	3712.67
2318	-206.412	3712.67
2319	-207.814	3712.67
2320	-204.811	3712.67
2321	-197.414	3712.67
2322	-185.653	3712.67
2323	-169.574	3712.67
2324	-149.24	3712.67
2325	-124.732	3712.67
2326	-96.1471	3712.67
2327	-63.5972	3712.67
2328	-27.211	3712.67
2329	12.8678	3712.67
2330	56.4811	3712.67
2331	103.457	3712.67
2332	153.609	3712.67
2333	206.741	3712.67
2334	262.642	3712.67
2335	321.092	3712.67
2336	381.861	3712.67
2337	444.707	3712.67
2338	509.384	3712.67
2339	575.636	3712.67
2340	643.201	3712.67
2341	711.814	3712.67
2342	781.203	3712.67
2343	851.094	3712.67
2344	921.212	3712.67
2345	991.279	3712.67
2346	1061.02	3712.67
2347	1130.16	3712.67
2348	1198.42	3712.67
2349	1265.54	3712.67
2350	1331.25	3712.67
2351	1395.3	3712.67
2352	1457.42	3712.67
2353	1517.37	3712.67
2354	1574.93	3712.67
2355	1629.85	3712.67
2356	1681.92	3712.67
2357	1730.94	3712.67
2358	1776.72	3712.67
2359	1819.07	3712.67
2360	1857.83	3712.67
2361	1892.84	3712.67
2362	1923.96	3712.67
2363	1951.08	3712.67
2364	1974.08	3712.67
2365	1992.88	3712.67
2366	2007.4	3712.67
2367	2017.58	3712.67
2368	2023.38	3712.67
2369	2024.78	3712.67
2370	2021.78	3712.67
2371	2014.38	3712.67
2372	2002.62	3712.67
2373	1986.54	3712.67
2374	1966.2	3712.67
2375	1941.7	3712.67
2376	1913.11	3712.67
2377	1880.56	3712.67
2378	1844.17	3712.67
2379	1804.09	3712.67
2380	1760.47	3712.67
2381	1713.49	3712.67
2382	1663.34	3712.67
2383	1610.21	3712.67
2384	1554.3	3712.67
2385	1495.85	3712.67
2386	1435.08	3712.67
2387	1372.23	3712.67
2388	1307.55	3712.67
2389	1241.3	3712.67
2390	1173.73	3712.67
2391	1105.12	3712.67
2392	1035.73	3712.67
2393	965.834	3712.67
2394	895.716	3712.67
2395	825.648	3712.67
2396	755.907	3712.67
2397	686.768	3712.67
2398	618.505	3712.67
2399	551.386	3712.67
2400	475.114	3711.62
2401	409.182	3711.62
2402	345.233	3711.62
2403	283.52	3711.62
2404	224.286	3711.62
2405	167.766	3711.62
2406	114.181	3711.62
2407	63.7433	3711.62
2408	16.6524	3711.62
2409	-26.9063	3711.62
2410	-66.7607	3711.62
2411	-102.754	3711.62
2412	-134.743	3711.62
2413	-162.603	3711.62
2414	-186.223	3711.62
2415	-205.511	3711.62
2416	-220.389	3711.62
2417	-230.8	3711.62
2418	-236.702	3711.62
2419	-238.072	3711.62
2420	-234.904	3711.62
2421	-227.212	3711.62
2422	-215.025	3711.62
2423	-198.391	3711.62
2424	-177.377	3711.62
2425	-152.064	3711.62
2426	-122.554	3711.62
2427	-88.9617	3711.62
2428	-51.4207	3711.62
2429	-10.0787	3711.62
2430	34.9011	3711.62
2431	83.3411	3711.62
2432	135.05	3711.62
2433	189.824	3711.62
2434	247.448	3711.62
2435	307.692	3711.62
2436	370.321	3711.62
2437	435.086	3711.62
2438	501.732	3711.62
2439	569.996	3711.62
2440	639.609	3711.62
2441	710.296	3711.62
2442	781.778	3711.62
2443	853.773	3711.62
2444	925.996	3711.62
2445	998.163	3711.62
2446	1069.99	3711.62
2447	1141.19	3711.62
2448	1211.49	3711.62
2449	1280.6	3711.62
2450	1348.26	3711.62
2451	1414.19	3711.62
2452	1478.14	3711.62
2453	1539.86	3711.62
2454	1599.1	3711.62
2455	1655.62	3711.62
2456	1709.21	3711.62
2457	1759.65	3711.62
2458	1806.74	3711.62
2459	1850.3	3711.62
2460	1890.16	3711.62
2461	1926.16	3711.62
2462	1958.15	3711.62
2463	1986.01	3711.62
2464	2009.64	3711.62
2465	2028.92	3711.62
2466	2043.8	3711.62
2467	2054.22	3711.62
2468	2060.12	3711.62
2469	2061.49	3711.62
2470	2058.32	3711.62
2471	2050.63	3711.62
2472	2038.44	3711.62
2473	2021.8	3711.62
2474	2000.79	3711.62
2475	1975.47	3711.62
2476	1945.96	3711.62
2477	1912.37	3711.62
2478	1874.82	3711.62
2479	1833.48	3711.62
2480	1788.49	3711.62
2481	1740.05	3711.62
2482	1688.34	3711.62
2483	1633.56	3711.62
2484	1575.93	3711.62
2485	1515.69	3711.62
2486	1453.05	3711.62
2487	1388.29	3711.62
2488	1321.64	3711.62
2489	1253.37	3711.62
2490	1183.76	3711.62
2491	1113.07	3711.62
2492	1041.59	3711.62
2493	969.591	3711.62
2494	897.367	3711.62
2495	825.2	3711.62
2496	753.375	3711.62
2497	682.174	3711.62
2498	611.88	3711.62
2499	542.769	3711.62
2500	464.324	3710.35
2501	396.471	3710.35
2502	330.666	3710.35
2503	267.167	3710.35
2504	206.224	3710.35
2505	148.079	3710.35
2506	92.9603	3710.35
2507	41.0861	3710.35
2508	-7.3392	3710.35
2509	-52.1245	3710.35
2510	-93.093	3710.35
2511	-130.083	3710.35
2512	-162.949	3710.35
2513	-191.56	3710.35
2514	-215.805	3710.35
2515	-235.587	3710.35
2516	-250.829	3710.35
2517	-261.469	3710.35
2518	-267.467	3710.35
2519	-268.798	3710.35
2520	-265.458	3710.35
2521	-257.459	3710.35
2522	-244.833	3710.35
2523	-227.629	3710.35
2524	-205.917	3710.35
2525	-179.781	3710.35
2526	-149.324	3710.35
2527	-114.667	3710.35
2528	-75.9465	3710.35
2529	-33.3152	3710.35
2530	13.0588	3710.35
2531	62.9923	3710.35
2532	116.288	3710.35
2533	172.737	3710.35
2534	232.114	3710.35
2535	294.187	3710.35
2536	358.71	3710.35
2537	425.429	3710.35
2538	494.08	3710.35
2539	564.393	3710.35
2540	636.089	3710.35
2541	708.886	3710.35
2542	782.497	3710.35
2543	856.631	3710.35
2544	930.996	3710.35
2545	1005.3	3710.35
2546	1079.24	3710.35
2547	1152.54	3710.35
2548	1224.9	3710.35
2549	1296.04	3710.35
2550	1365.67	3710.35
2551	1433.53	3710.35
2552	1499.34	3710.35
2553	1562.84	3710.35
2554	1623.79	3710.35
2555	1681.94	3710.35
2556	1737.06	3710.35
2557	1788.94	3710.35
2558	1837.37	3710.35
2559	1882.16	3710.35
2560	1923.13	3710.35
2561	1960.13	3710.35
2562	1993	3710.35
2563	2021.61	3710.35
2564	2045.86	3710.35
2565	2065.64	3710.35
2566	2080.88	3710.35
2567	2091.52	3710.35
2568	2097.52	3710.35
2569	2098.85	3710.35
2570	2095.51	3710.35
2571	2087.51	3710.35
2572	2074.88	3710.35
2573	2057.68	3710.35
2574	2035.96	3710.35
2575	2009.82	3710.35
2576	1979.36	3710.35
2577	1944.7	3710.35
2578	1905.98	3710.35
2579	1863.34	3710.35
2580	1816.96	3710.35
2581	1767.03	3710.35
2582	1713.73	3710.35
2583	1657.27	3710.35
2584	1597.89	3710.35
2585	1535.81	3710.35
2586	1471.29	3710.35
2587	1404.57	3710.35
2588	1335.91	3710.35
2589	1265.6	3710.35
2590	1193.9	3710.35
2591	1121.1	3710.35
2592	1047.49	3710.35
2593	973.354	3710.35
2594	898.989	3710.35
2595	824.688	3710.35
2596	750.744	3710.35
2597	677.448	3710.35
2598	605.089	3710.35
2599	533.954	3710.35
